4;;6;;8;;
Wavelength (nm);Abs;Wavelength (nm);Abs;Wavelength (nm);Abs;
599,9916992;0,0613392517;599,9916992;0,09240589291;599,9916992;0,1232809201;
598,9547119;0,06217977405;598,9547119;0,09358727932;598,9547119;0,1248936951;
598,0656738;0,06325324625;598,0656738;0,09514339268;598,0656738;0,1271270514;
597,0281372;0,06448175013;597,0281372;0,09705483168;597,0281372;0,129265815;
595,9903564;0,06581963599;595,9903564;0,09900739044;595,9903564;0,1323638558;
594,9522705;0,06726004183;594,9522705;0,1015369594;594,9522705;0,1352953166;
594,0623169;0,06882971525;594,0623169;0,1033587977;594,0623169;0,13800776;
593,0236816;0,07004226744;593,0236816;0,1057549119;593,0236816;0,1409597546;
591,9848022;0,07253707945;591,9848022;0,1093249246;591,9848022;0,1457680613;
590,9456787;0,07583414763;590,9456787;0,1139552593;590,9456787;0,1519992948;
590,0547485;0,07877609879;590,0547485;0,1185138002;590,0547485;0,1582099348;
589,0150757;0,08287526667;589,0150757;0,1245731711;589,0150757;0,1659231335;
587,9751587;0,08674501628;587,9751587;0,1304391176;587,9751587;0,174371928;
586,9349365;0,09166054428;586,9349365;0,1381058693;586,9349365;0,1837937385;
586,0430908;0,09802556783;586,0430908;0,1473919004;586,0430908;0,1971361637;
585,0023193;0,1070416123;585,0023193;0,1603607982;585,0023193;0,2136680335;
583,9613037;0,1168727651;583,9613037;0,1738590449;583,9613037;0,2326792181;
583,0687866;0,1259754747;583,0687866;0,1876548082;583,0687866;0,2503293753;
582,0272827;0,1371057332;582,0272827;0,2031778097;582,0272827;0,2720763981;
580,9854736;0,1509308964;580,9854736;0,2247029543;580,9854736;0,3000310063;
579,9434204;0,1655210704;579,9434204;0,2464916557;579,9434204;0,3294358552;
579,0499878;0,181956768;579,0499878;0,2693607211;579,0499878;0,3619024754;
578,0073853;0,1995002776;578,0073853;0,2953962088;578,0073853;0,396822542;
576,9645386;0,2186754346;576,9645386;0,3235878348;576,9645386;0,4339827895;
576,0704346;0,2348966002;576,0704346;0,3483054638;576,0704346;0,4667247832;
575,0270996;0,2521447241;575,0270996;0,3750210106;575,0270996;0,5029485226;
573,9834595;0,2703340352;573,9834595;0,400085777;573,9834595;0,5362651944;
572,9395752;0,2868094742;572,9395752;0,4258838296;572,9395752;0,5708954334;
572,0446167;0,2994223535;572,0446167;0,444753468;572,0446167;0,5957382917;
571,0001831;0,3119419813;571,0001831;0,4630678892;571,0001831;0,6207080483;
569,9555054;0,3220353425;569,9555054;0,4779927135;569,9555054;0,6407034993;
569,0598755;0,3271510303;569,0598755;0,4850295782;569,0598755;0,6500884891;
568,0147095;0,3312916756;568,0147095;0,4920197725;568,0147095;0,6588879824;
566,9692383;0,3346410394;566,9692383;0,4962411523;566,9692383;0,664690733;
566,072937;0,3360586166;566,072937;0,4977249503;566,072937;0,6672292948;
565,0270386;0,3359688818;565,0270386;0,4982809424;565,0270386;0,6681012511;
563,980835;0,3361444175;563,980835;0,4984745979;563,980835;0,6681248546;
562,9343262;0,3366241157;562,9343262;0,4989386797;562,9343262;0,6689066887;
562,0371704;0,3375649154;562,0371704;0,4997330308;562,0371704;0,6705243587;
560,9902344;0,3397611678;560,9902344;0,5039450526;560,9902344;0,6749367118;
559,9429932;0,3449635804;559,9429932;0,5118643045;559,9429932;0,6860545874;
559,045166;0,3523409665;559,045166;0,5214625597;559,045166;0,6999419928;
557,9974365;0,3628447354;557,9974365;0,5367859602;557,9974365;0,7208476663;
556,9494629;0,3767745495;556,9494629;0,5574178696;556,9494629;0,7486134768;
556,0509644;0,3900054693;556,0509644;0,5771175623;556,0509644;0,7760803699;
555,0025024;0,4122269452;555,0025024;0,6103433371;555,0025024;0,820868969;
553,9537964;0,4362955391;553,9537964;0,6471271515;553,9537964;0,8682280183;
553,0546875;0,4583391845;553,0546875;0,6793310642;553,0546875;0,9098547101;
552,0054321;0,486454457;552,0054321;0,7197945714;552,0054321;0,9663565159;
550,9559937;0,5120379925;550,9559937;0,7578709126;550,9559937;1,017369986;
550,0562134;0,5303635597;550,0562134;0,7853163481;550,0562134;1,054713607;
549,0062866;0,5531979203;549,0062866;0,8190105557;549,0062866;1,099750161;
547,9560547;0,5714013577;547,9560547;0,8458842039;547,9560547;1,135526061;
547,0556641;0,5812718868;547,0556641;0,8606552482;547,0556641;1,155323863;
546,0049438;0,5878942013;546,0049438;0,8708478808;546,0049438;1,168689847;
544,9540405;0,5882875919;544,9540405;0,8715234995;544,9540405;1,168369412;
544,0529785;0,5865668654;544,0529785;0,8691180348;544,0529785;1,168247104;
543,0015869;0,5785933137;543,0015869;0,8573445678;543,0015869;1,151602507;
541,9498901;0,5678917766;541,9498901;0,841142714;541,9498901;1,128356814;
541,0482178;0,5578420162;541,0482178;0,8263571858;541,0482178;1,110460162;
539,9960938;0,5437111855;539,9960938;0,8050425053;539,9960938;1,080143452;
538,9436646;0,5330621004;538,9436646;0,7901280522;538,9436646;1,059535146;
538,0413818;0,5260123014;538,0413818;0,7791045904;538,0413818;1,046476364;
536,9885254;0,5177217722;536,9885254;0,7669038773;536,9885254;1,030007482;
535,9353638;0,5122224092;535,9353638;0,7584996223;535,9353638;1,018025994;
535,0324707;0,5130466223;535,0324707;0,7600104809;535,0324707;1,020713925;
533,9788818;0,5171638131;533,9788818;0,7658966184;533,9788818;1,028087139;
532,9249878;0,5243066549;532,9249878;0,7762451768;532,9249878;1,042614937;
532,0214844;0,5337205529;532,0214844;0,7902886868;532,0214844;1,060885072;
530,9671631;0,5504626036;530,9671631;0,8146315813;530,9671631;1,095151186;
530,0632324;0,5665894747;530,0632324;0,8384273648;530,0632324;1,126075983;
529,0084839;0,580442667;529,0084839;0,8584173918;529,0084839;1,152433872;
527,9534302;0,5941379666;527,9534302;0,8792333603;527,9534302;1,182567477;
527,0488892;0,6026671529;527,0488892;0,8923634887;527,0488892;1,199212432;
525,9934082;0,6087761521;525,9934082;0,9006474614;525,9934082;1,209708929;
524,9376221;0,6110912561;524,9376221;0,9036517143;524,9376221;1,214626551;
524,0325317;0,6072891951;524,0325317;0,8986807466;524,0325317;1,206558228;
522,9763184;0,5979928374;522,9763184;0,8851441741;522,9763184;1,186401963;
522,0708008;0,5860215425;522,0708008;0,8683781624;522,0708008;1,164542079;
521,0140991;0,570014596;521,0140991;0,843310535;521,0140991;1,131332874;
519,9572144;0,5506287217;519,9572144;0,8141798973;519,9572144;1,09504509;
519,0510864;0,5311119556;519,0510864;0,7857403755;519,0510864;1,054517746;
517,9937134;0,511946857;517,9937134;0,7564608455;517,9937134;1,014715433;
516,9360962;0,4926030934;516,9360962;0,728864491;516,9360962;0,9793100357;
516,0293579;0,479812026;516,0293579;0,7100479007;516,0293579;0,9522501826;
514,9713135;0,4675768912;514,9713135;0,6918501854;514,9713135;0,9277890325;
514,064209;0,4596619308;514,064209;0,6798419952;514,064209;0,9128913283;
513,0056763;0,4537909627;513,0056763;0,6714541316;513,0056763;0,9010838866;
511,9468994;0,4520969391;511,9468994;0,668307066;511,9468994;0,8972368836;
511,0392151;0,4523621798;511,0392151;0,6700117588;511,0392151;0,8992890716;
509,980011;0,4554379582;509,980011;0,6732273102;509,980011;0,9037111998;
509,0719299;0,4573348165;509,0719299;0,6766271591;509,0719299;0,9079836011;
508,0122681;0,4605634511;508,0122681;0,6808604002;508,0122681;0,9132325649;
506,9523621;0,4610560238;506,9523621;0,6818014383;506,9523621;0,9157628417;
506,0437012;0,4588383734;506,0437012;0,6786292195;506,0437012;0,9103797078;
504,9833679;0,4526795447;504,9833679;0,6691887379;504,9833679;0,8974705338;
504,0743103;0,4461176097;504,0743103;0,6588099599;504,0743103;0,8840019703;
503,0135498;0,4339270592;503,0135498;0,6413065195;503,0135498;0,8603980541;
501,9525146;0,4176930487;501,9525146;0,6175581217;501,9525146;0,8271768689;
501,0428772;0,4004290104;501,0428772;0,5925948024;501,0428772;0,7928113341;
499,9814148;0,3820057213;499,9814148;0,56450665;499,9814148;0,7568591237;
499,0714111;0,3676519096;499,0714111;0,5425801873;499,0714111;0,7275733352;
498,0095215;0,3509611189;498,0095215;0,5178228617;498,0095215;0,6952504516;
496,9473877;0,3356078565;496,9473877;0,4956150949;496,9473877;0,6643092632;
496,0368042;0,3215385079;496,0368042;0,4749998152;496,0368042;0,6365836263;
494,9742432;0,3092142344;494,9742432;0,456392169;494,9742432;0,6118981242;
494,0632935;0,3003926873;494,0632935;0,4438289404;494,0632935;0,5958184004;
493,0003052;0,294905901;493,0003052;0,4353034794;493,0003052;0,5839086175;
491,9370728;0,2907496989;491,9370728;0,4294984341;491,9370728;0,5759102702;
491,0255432;0,287995249;491,0255432;0,425167352;491,0255432;0,5704182386;
489,9618835;0,2838375568;489,9618835;0,4192174375;489,9618835;0,5623400807;
489,0499878;0,2803863287;489,0499878;0,4141438305;489,0499878;0,5552249551;
487,9859009;0,2758106589;487,9859009;0,4074909985;487,9859009;0,5463795662;
487,0736389;0,2718421519;487,0736389;0,4013631642;487,0736389;0,5378953218;
486,0091248;0,2635221183;486,0091248;0,3888891339;486,0091248;0,5216321945;
484,944397;0,252251476;484,944397;0,3720321059;484,944397;0,4992926717;
484,0315552;0,2433170378;484,0315552;0,3597334921;484,0315552;0,4814110696;
482,9664001;0,2311636209;482,9664001;0,3414736092;482,9664001;0,4574593306;
482,0532227;0,2210548818;482,0532227;0,3260723352;482,0532227;0,4369456768;
480,9876099;0,2089194506;480,9876099;0,3081096411;480,9876099;0,4136689603;
480,0740662;0,1973677129;480,0740662;0,2910622656;480,0740662;0,3909175098;
479,0080566;0,1861000955;479,0080566;0,2739545405;479,0080566;0,3673541546;
477,941803;0,1771136522;477,941803;0,2611881793;477,941803;0,3496291339;
477,02771;0,1703883857;477,02771;0,2507303059;477,02771;0,3362013698;
475,9610596;0,1647052318;475,9610596;0,2418607324;475,9610596;0,324321121;
475,0466003;0,1600790173;475,0466003;0,2356201857;475,0466003;0,3159963191;
473,9795227;0,1550407708;473,9795227;0,2282985002;473,9795227;0,3061404228;
473,0647278;0,151492849;473,0647278;0,2229884714;473,0647278;0,2988288105;
471,9972229;0,1475644708;471,9972229;0,2171459496;471,9972229;0,2911939919;
470,9295044;0,1434390694;470,9295044;0,2103670537;470,9295044;0,2819713056;
470,0141602;0,1395516694;470,0141602;0,2047572881;470,0141602;0,2745254934;
468,9460449;0,1341822296;468,9460449;0,1969238669;468,9460449;0,2641040683;
468,0303345;0,1281535625;468,0303345;0,1879844368;468,0303345;0,2518669963;
466,961792;0,1217614412;466,961792;0,1786026508;466,961792;0,2392345965;
466,0457153;0,1155083776;466,0457153;0,1690804958;466,0457153;0,2271714956;
464,9767761;0,1084352359;464,9767761;0,1594150364;464,9767761;0,2133462578;
464,0603638;0,1037325636;464,0603638;0,1516469419;464,0603638;0,2035867721;
462,9910278;0,0974002108;462,9910278;0,1422646046;462,9910278;0,1904359311;
462,0742798;0,0919508189;462,0742798;0,1345549971;462,0742798;0,1803258508;
461,0045166;0,08712040633;461,0045166;0,1270147115;461,0045166;0,1701305807;
459,9345398;0,08312800527;459,9345398;0,1211015284;459,9345398;0,1627222896;
459,0172424;0,08046914637;459,0172424;0,1174836978;459,0172424;0,1574550867;
457,9468689;0,07760926336;457,9468689;0,1131091416;457,9468689;0,1514579952;
457,0292358;0,07486994565;457,0292358;0,1088370159;457,0292358;0,1458275914;
455,9584656;0,07204016298;455,9584656;0,1047222167;455,9584656;0,1403753012;
455,0404663;0,06980790943;455,0404663;0,1013921723;455,0404663;0,1357581913;
453,9692993;0,06701917946;453,9692993;0,09728612751;453,9692993;0,1302999556;
453,0509949;0,06480330229;453,0509949;0,0938500911;453,0509949;0,1259521991;
451,9794006;0,0616466403;451,9794006;0,08910308033;451,9794006;0,1196361408;
451,0607605;0,05852943659;451,0607605;0,08434002101;451,0607605;0,1132064238;
449,9888;0,05499839038;449,9888;0,07922446728;449,9888;0,1061872989;
449,0697937;0,05272867531;449,0697937;0,07542926818;449,0697937;0,1011767462;
447,9974365;0,04992165789;447,9974365;0,07155528665;447,9974365;0,09567451477;
446,9248657;0,04760173336;446,9248657;0,06794735789;446,9248657;0,09131554514;
446,0053406;0,04534478858;446,0053406;0,06460881978;446,0053406;0,08670436591;
444,932373;0,04319806397;444,932373;0,06133949012;444,932373;0,08233894408;
444,0125122;0,04158300906;444,0125122;0,05906201527;444,0125122;0,07917691022;
442,9391785;0,04035601392;442,9391785;0,05682636425;442,9391785;0,07640141249;
442,0189819;0,03935744613;442,0189819;0,05535286665;442,0189819;0,0742162466;
440,9452515;0,03792166337;440,9452515;0,05334128067;440,9452515;0,07160183042;
440,0247498;0,03674929217;440,0247498;0,05145385861;440,0247498;0,06902670115;
438,9506226;0,03545254096;438,9506226;0,04934047908;438,9506226;0,06623138487;
438,0297546;0,03437267616;438,0297546;0,04788957536;438,0297546;0,06423533708;
436,9552612;0,03343234584;436,9552612;0,04603137448;436,9552612;0,06181875616;
436,0340881;0,03215314075;436,0340881;0,04426211491;436,0340881;0,05952802673;
434,959198;0,03083647415;434,959198;0,04220504314;434,959198;0,05667771772;
434,0376892;0,02982576191;434,0376892;0,04062598944;434,0376892;0,05476361513;
432,9624023;0,02875883877;432,9624023;0,03901949152;432,9624023;0,05256371945;
432,0405884;0,02833899669;432,0405884;0,03820714727;432,0405884;0,05139601603;
430,9649353;0,02773186192;430,9649353;0,03709876165;430,9649353;0,05000265688;
430,0427856;0,02710521221;430,0427856;0,03596212715;430,0427856;0,04858231544;
428,9667664;0,02677684836;428,9667664;0,03528438509;428,9667664;0,04762270302;
428,044281;0,02644081041;428,044281;0,03472962976;428,044281;0,04678175226;
426,9678955;0,02615099587;426,9678955;0,03425448388;426,9678955;0,04619646072;
426,045105;0,02586085349;426,045105;0,03371399641;426,045105;0,04561394453;
424,9683228;0,02563252114;424,9683228;0,03321103379;424,9683228;0,04489976913;
424,0451965;0,02545310929;424,0451965;0,03288159892;424,0451965;0,04443000257;
422,9680481;0,02541569807;422,9680481;0,03254421055;422,9680481;0,04404493049;
422,0446167;0,02538303845;422,0446167;0,03235709295;422,0446167;0,04375026003;
420,9671021;0,02529788762;420,9671021;0,0321312584;420,9671021;0,0435860157;
420,0433655;0,02545135096;420,0433655;0,03207827359;420,0433655;0,0435314998;
418,9654541;0,0256773103;418,9654541;0,03230357915;418,9654541;0,04374453425;
418,0414124;0,02594611421;418,0414124;0,03254270181;418,0414124;0,04404982924;
416,9631348;0,02647099085;416,9631348;0,0329853408;416,9631348;0,04480433464;
416,0387878;0,02674551681;416,0387878;0,03335658833;416,0387878;0,04535579309;
414,960144;0,0275782235;414,960144;0,03417357057;414,960144;0,04661284015;
414,0354614;0,02827779762;414,0354614;0,0352762714;414,0354614;0,0479029566;
412,9564819;0,02924608812;412,9564819;0,03630919009;412,9564819;0,04944376275;
412,0314941;0,03018576838;412,0314941;0,03748240322;412,0314941;0,05100318044;
410,9521484;0,03123826534;410,9521484;0,03885645792;410,9521484;0,05293586105;
410,026825;0,03236588091;410,026825;0,04026432708;410,026825;0,05472206697;
408,9471436;0,0339663513;408,9471436;0,04234122857;408,9471436;0,05766930431;
408,0215149;0,03547964618;408,0215149;0,04426621646;408,0215149;0,06032721326;
406,9414673;0,03728220612;406,9414673;0,04672755301;406,9414673;0,06382097304;
406,0155334;0,03906602412;406,0155334;0,04900553823;406,0155334;0,06666519493;
404,9351196;0,04093273729;404,9351196;0,05148906261;404,9351196;0,07026278228;
404,0089111;0,04296697676;404,0089111;0,05414231867;404,0089111;0,07398752123;
402,9281311;0,04571298137;402,9281311;0,05802727118;402,9281311;0,07911438495;
402,0015869;0,04814102501;402,0015869;0,06170869991;402,0015869;0,0837604776;
401,0749207;0,0506516248;401,0749207;0,06487077475;401,0749207;0,08799400181;
399,9936523;0,05374160036;399,9936523;0,06901626289;399,9936523;0,09380166978;

4;
4
Collection Time: 15.10.2024 13:36:08
Operator Name  :
Scan Software Version: 3.00(339)
Parameter List :
Instrument                        Cary 50
Instrument Version                3,00
Start (nm)                        600,0
Stop (nm)                         400,0
X Mode                            Nanometers
Y Mode                            Abs
UV-Vis Scan Rate (nm/min)         600,00
UV-Vis Data Interval (nm)         1,00
UV-Vis Ave. Time (sec)            0,1000
Beam Mode                         Dual Beam
Baseline Correction               On
Baseline Type                     Baseline correction
Baseline File Name
Baseline Std Ref File Name
Cycle Mode                        Off
Comments
Method Log     :
Method Name    :
Date/Time stamp: 15.10.2024 10:35:30
Method Modifications:
UVVIS SAT Changed: 15.10.2024 13:32:29, Old:0,0125, New:0,1000
Common SAT Changed: 15.10.2024 13:32:29, Old:0,0125, New:0,1000
X Start nm Changed: 15.10.2024 13:32:36, Old:  800,0, New:  600,0
X Stop nm Changed: 15.10.2024 13:32:36, Old:  200,0, New:  400,0
Common Interval nm Changed: 15.10.2024 13:32:36, Old:     5,00, New:     1,00
Baseline Correction Changed: 15.10.2024 13:32:36, Old:0, New:1
End Method Modifications
<Current Wavelength> , 401,1

6;
6
Collection Time: 15.10.2024 13:37:16
Operator Name  :
Scan Software Version: 3.00(339)
Parameter List :
Instrument                        Cary 50
Instrument Version                3,00
Start (nm)                        600,0
Stop (nm)                         400,0
X Mode                            Nanometers
Y Mode                            Abs
UV-Vis Scan Rate (nm/min)         600,00
UV-Vis Data Interval (nm)         1,00
UV-Vis Ave. Time (sec)            0,1000
Beam Mode                         Dual Beam
Baseline Correction               On
Baseline Type                     Baseline correction
Baseline File Name
Baseline Std Ref File Name
Cycle Mode                        Off
Comments
Method Log     :
Method Name    :
Date/Time stamp: 15.10.2024 10:35:30
Method Modifications:
UVVIS SAT Changed: 15.10.2024 13:32:29, Old:0,0125, New:0,1000
Common SAT Changed: 15.10.2024 13:32:29, Old:0,0125, New:0,1000
X Start nm Changed: 15.10.2024 13:32:36, Old:  800,0, New:  600,0
X Stop nm Changed: 15.10.2024 13:32:36, Old:  200,0, New:  400,0
Common Interval nm Changed: 15.10.2024 13:32:36, Old:     5,00, New:     1,00
Baseline Correction Changed: 15.10.2024 13:32:36, Old:0, New:1
End Method Modifications
<Current Wavelength> , 401,1

8;
8
Collection Time: 15.10.2024 13:38:31
Operator Name  :
Scan Software Version: 3.00(339)
Parameter List :
Instrument                        Cary 50
Instrument Version                3,00
Start (nm)                        600,0
Stop (nm)                         400,0
X Mode                            Nanometers
Y Mode                            Abs
UV-Vis Scan Rate (nm/min)         600,00
UV-Vis Data Interval (nm)         1,00
UV-Vis Ave. Time (sec)            0,1000
Beam Mode                         Dual Beam
Baseline Correction               On
Baseline Type                     Baseline correction
Baseline File Name
Baseline Std Ref File Name
Cycle Mode                        Off
Comments
Method Log     :
Method Name    :
Date/Time stamp: 15.10.2024 10:35:30
Method Modifications:
UVVIS SAT Changed: 15.10.2024 13:32:29, Old:0,0125, New:0,1000
Common SAT Changed: 15.10.2024 13:32:29, Old:0,0125, New:0,1000
X Start nm Changed: 15.10.2024 13:32:36, Old:  800,0, New:  600,0
X Stop nm Changed: 15.10.2024 13:32:36, Old:  200,0, New:  400,0
Common Interval nm Changed: 15.10.2024 13:32:36, Old:     5,00, New:     1,00
Baseline Correction Changed: 15.10.2024 13:32:36, Old:0, New:1
End Method Modifications
<Current Wavelength> , 401,1

